Semiconductor Band Gap Date: 2024-02-13,3:45 PM
Temperature,Resistance
323.641,3901.12
323.638,1616.283
323.638,1841.075
323.633,1815.985
323.627,2079.928
323.629,1271.205
323.651,1608.999
323.683,1448.044
323.734,1371.36
323.786,1705.916
323.856,4900.845
323.934,1330.388
324.027,534.615
324.127,1819.728
324.246,2103.499
324.389,99.495
324.543,1447.032
324.705,1453.912
324.887,2173.607
325.073,1569.038
325.277,1529.887
325.483,1386.535
325.707,1587.045
325.936,1365.19
326.173,1748.811
326.426,1477.685
326.691,1379.656
326.958,1651.894
327.24,1393.616
327.536,1548.4
327.833,1323.104
328.144,1259.065
328.461,1425.079
328.801,1426.698
329.133,1441.771
329.487,1461.802
329.845,1449.258
330.22,1484.16
330.594,1489.522
330.988,1393.414
331.376,1518.961
331.778,1455.832
332.175,1464.837
332.587,-84.126
333.002,1813.658
333.434,1407.881
333.859,1514.408
334.298,1512.385
334.734,1870.311
335.18,1335.952
335.622,1390.683
336.075,1506.315
336.524,1511.88
336.988,1595.544
337.453,1572.276
337.931,1413.951
338.402,1419.415
338.891,1318.248
339.369,1369.437
339.86,1164.273
340.337,1259.065
340.829,1337.267
341.324,1273.633
341.818,1362.558
342.337,1349.205
342.862,3124.265
343.388,1276.465
343.912,1290.73
344.437,1147.175
344.975,1442.48
345.506,1327.454
346.038,1519.871
346.56,1669.192
347.069,844.79
347.586,990.875
348.116,1134.125
348.665,1208.887
349.203,1077.068
349.766,1454.316
350.321,1262.303
350.899,1140.398
351.475,966.695
352.054,1257.245
352.641,746.254
353.214,1425.787
353.791,1329.173
354.364,1223.657
354.933,1180.053
355.516,1153.043
356.069,1197.354
356.655,1030.227
357.254,1157.09
357.838,1157.393
358.439,1382.285
359.026,1157.292
359.61,1119.86
360.194,1085.363
360.787,1093.76
361.368,1107.721
361.945,1144.343
362.527,1161.137
363.123,1162.856
363.694,1182.078
364.25,1172.973
364.802,1143.837
365.335,1173.58
365.901,1209.696
366.485,1161.541
367.084,1151.627
367.708,1159.619
368.325,1143.23
368.948,1203.424
369.561,1142.421
370.15,1116.927
370.761,1182.482
371.365,1129.472
371.978,1176.716
372.584,1129.774
373.171,1156.685
373.766,1105.09
374.343,1160.125
374.949,1084.958
375.54,1083.036
376.134,1100.842
376.728,1086.881
377.313,1102.865
377.921,1090.016
378.519,1026.789
379.135,1046.212
379.752,1148.693
380.348,1137.463
380.959,1156.078
381.561,1102.258
382.179,1163.665
382.794,1093.051
383.422,1137.363
384.025,1044.088
384.645,1063.915
385.243,1131.697
385.833,1016.975
386.434,1117.028
387.017,1035.387
387.61,1080.103
388.198,1053.799
388.778,1055.519
389.376,1046.312
389.972,1098.616
390.58,1061.285
391.168,1085.262
391.777,1059.566
392.353,1097.199
392.949,1010.399
393.515,1024.664
394.103,1096.592
394.693,999.979
395.289,1036.094
395.872,1072.515
396.45,1028.811
397.061,1016.267
397.694,1096.39
398.298,1061.791
398.908,1022.944
399.52,1021.73
400.136,1055.114
400.744,1012.726
401.349,1070.896
401.995,1063.815
402.618,1093.254
403.243,1061.184
403.838,1126.942
404.43,1151.121
405.022,1281.119
405.635,1115.713
406.216,1090.219
406.794,1098.312
407.342,1321.889
407.893,1077.776
408.459,1023.044
409.049,1052.686
409.644,-388.746
410.223,1070.794
410.79,1061.791
411.364,1070.997
411.973,1027.091
412.59,1071.2
413.189,1107.417
413.783,1019.099
414.386,1065.635
414.983,1018.998
415.569,1095.378
416.138,1043.985
416.718,1030.935
417.293,1046.414
417.875,1018.897
418.447,989.963
419.038,1073.527
419.636,1081.114
420.253,1080.103
420.854,1088.398
421.373,1102.358
421.948,1118.342
422.561,1117.231
423.165,1112.171
423.778,1080.304
424.361,1102.258
424.947,1092.039
425.376,971.652
425.863,893.552
426.307,930.174
426.805,932.501
427.339,896.991
427.9,960.827
428.457,908.626
429.021,901.949
429.578,842.261
430.151,830.728
430.706,838.214
431.263,765.274
431.798,832.954
432.361,1051.067
432.925,790.059
433.492,793.6
434.039,827.288
434.589,845.397
435.137,842.868
435.69,847.521
436.213,849.444
436.713,822.432
437.202,854.603
437.713,870.081
438.248,853.693
438.818,842.16
439.415,877.871
440.024,914.291
440.643,932.197
441.281,950.508
441.91,936.345
442.551,946.462
443.17,980.657
443.799,949.194
444.384,949.295
444.962,955.567
445.507,937.863
446.062,930.376
446.57,915.91
447.078,918.034
447.511,938.166
447.887,851.771
448.292,741.297
448.704,861.584
449.122,832.144
449.588,834.977
450.109,882.929
450.678,937.356
451.269,853.187
451.878,881.007
452.489,902.353
453.111,906.4
453.719,918.135
454.335,923.295
454.985,936.851
455.59,953.139
456.209,974.889
456.82,985.107
457.432,998.056
457.982,992.695
458.513,1104.584
459.075,962.749
459.624,958.399
460.147,969.932
460.63,939.582
461.026,885.458
461.36,817.576
461.642,801.693
461.937,768.612
462.266,691.928
462.669,726.223
463.087,834.976
463.56,796.331
464.103,773.973
464.686,801.491
465.274,835.077
465.886,952.633
466.534,862.089
467.186,847.925
467.873,832.042
468.525,912.47
469.164,843.575
469.816,926.127
470.457,948.788
471.071,975.192
471.629,959.612
472.204,980.959
472.758,981.162
473.338,1009.184
473.879,1018.188
474.405,1021.223
474.934,999.169
475.453,985.107
475.908,932.804
476.303,901.037
476.719,858.244
477.119,851.972
477.553,817.07
478.058,901.24
478.633,816.362
479.163,873.622
479.665,891.73
480.191,878.579
480.741,833.155
481.299,849.038
481.863,852.073
482.364,816.159
482.866,791.981
483.367,809.381
483.894,757.686
484.328,747.974
484.777,781.763
485.219,810.899
485.685,845.599
486.184,850.455
486.706,865.63
487.228,866.338
487.788,871.093
488.262,826.074
488.573,755.662
488.854,701.235
489.175,636.59
489.517,601.991
489.908,587.423
490.283,551.813
490.691,543.922
491.102,526.926
491.568,528.342
492.056,528.848
492.571,529.961
493.121,551.307
493.712,554.038
494.377,602.193
495.085,635.376
495.788,697.694
496.457,737.857
497.135,773.164
497.773,792.183
498.377,778.93
498.94,777.008
499.338,713.78
499.637,657.632
499.882,618.683
500.098,600.17
500.318,593.695
500.687,562.131
501.114,560.614
501.622,549.081
502.224,578.621
502.866,560.311
503.467,559.299
504.006,525.105
504.46,484.537
504.811,487.875
505.109,443.261
505.371,395.005
505.623,390.756
505.893,399.457
506.225,390.048
506.597,370.523
507.048,292.221
507.581,328.843
508.186,384.181
508.864,409.27
509.629,425.558
510.365,430.818
511.067,467.339
511.75,483.02
512.426,498.498
513.035,499.611
513.57,454.491
513.984,397.939
514.357,342.096
514.759,318.423
515.23,312.049
515.749,323.987
516.332,350.29
516.914,393.791
517.522,407.247
518.107,399.254
518.672,397.332
519.261,397.029
519.824,408.359
520.361,398.749
520.834,396.017
521.199,383.27
521.49,324.897
521.667,259.544
521.833,217.155
522.048,173.956
522.301,135.208
522.632,135.613
523.021,108.196
523.461,90.593
523.977,125.799
524.546,139.558
525.195,151.193
525.896,180.532
526.61,214.221
527.252,252.058
527.824,220.19
528.402,211.995
528.96,217.155
529.527,216.245
530.047,218.369
530.563,212.299
531.076,214.019
531.521,190.446
531.858,160.399
532.206,149.675
532.486,143.099
532.737,103.34
533.004,64.491
533.363,63.176
533.652,44.257
533.922,49.215
534.298,11.883
534.801,16.638
535.337,5.105
535.888,-625.278
536.334,-41.837
536.713,-48.008
537.044,-119.029
537.311,-122.975
537.603,-181.248
537.931,-156.765
538.233,-181.248
538.559,-211.397
538.946,-179.427
539.479,-189.645
540.111,-155.956
540.808,-139.263
541.482,-99.706
542.152,-86.453
542.763,-116.803
543.292,-95.659
543.795,-93.636
544.213,-129.146
544.534,-175.886
544.85,-221.817
545.142,-203.0
545.47,-266.938
545.821,-312.464
546.243,-287.881
546.791,-278.269
547.325,-263.701
547.883,-253.988
548.44,-283.834
548.954,-252.168
549.464,-258.946
549.972,-271.491
550.453,-294.052
550.873,-277.46
551.262,-292.939
551.598,-335.025
551.937,-354.348
552.232,-407.765
552.492,-398.256
552.842,-415.454
553.372,-385.407
553.949,-340.59
554.532,-353.741
555.11,-354.855
555.648,-337.554
556.145,-353.438
556.578,-374.279
557.005,-381.259
557.367,-355.562
557.822,-397.042
558.293,-411.206
558.787,-375.999
559.262,-403.213
559.742,-403.213
560.221,-405.438
560.673,-405.641
561.088,-407.564
561.415,-378.123
561.597,-449.953
561.728,-513.487
561.858,-506.305
562.017,-540.702
562.199,-517.534
562.425,-553.348
562.628,-558.204
562.866,-570.547
563.167,-566.804
563.568,-570.951
563.991,-552.235
564.566,-531.091
565.16,-555.776
565.74,-527.448
566.339,-548.391
566.903,-555.776
567.428,-554.258
567.812,-572.975
568.105,-607.879
568.402,-613.543
568.811,-592.096
569.256,-583.193
569.668,-583.092
570.034,-609.092
570.413,-604.236
570.813,-598.166
571.271,-610.407
571.742,-601.505
572.209,-592.399
572.671,-597.66
573.11,-600.088
573.528,-603.427
573.876,-602.314
574.175,-623.154
574.489,-662.611
574.83,-655.731
575.235,-664.634
575.666,-663.419
576.099,-657.957
576.497,-660.891
576.895,-646.727
577.319,-657.451
577.711,-676.268
577.997,-666.86
578.141,-666.556
578.21,-685.778
578.328,-705.203
578.597,-703.887
579.011,-741.321
579.488,-724.627
579.956,-693.467
580.373,-690.331
580.855,-699.032
581.308,-685.88
581.698,-697.312
581.958,-747.895
582.161,-720.379
582.49,-729.179
582.92,-757.002
583.387,-724.628
583.835,-729.585
584.291,-743.951
584.689,-730.495
585.031,-738.386
585.366,-729.989
585.78,-717.242
586.181,-717.445
586.579,-727.46
586.912,-718.558
587.229,-729.18
587.503,-750.83
587.773,-785.734
588.063,-776.73
588.336,-789.881
588.625,-805.968
588.845,-786.24
588.986,-804.754
589.121,-803.135
589.195,-780.169
589.188,-800.706
589.259,-798.279
589.434,-1165.826
589.708,-1175.538
589.842,-1175.133
590.19,-1199.414
590.679,-1210.644
591.24,-1205.787
591.878,-1229.159
592.483,-1236.239
593.029,-1261.532
593.549,-1263.251
593.993,-1264.162
594.255,-1248.481
594.404,-1229.057
594.493,-1211.958
594.426,-1231.687
594.261,-1221.671
594.187,-1253.236
594.364,-1231.282
594.81,-1243.523
595.381,-1211.858
596.028,-1218.128
596.671,-1192.434
597.313,-1180.9
597.95,-1170.885
598.526,-1189.398
599.1,-1190.006
599.631,-1191.927
600.173,-1214.388
600.651,-1255.563
601.07,-1274.785
601.435,-1284.397
601.708,-1273.065
601.97,-1289.453
602.21,-1278.932
602.434,-1291.782
602.674,-1295.02
602.926,-1300.482
603.111,-1289.354
603.162,-1287.432
603.133,-1281.563
603.097,-1292.388
603.142,-1301.594
603.322,-1307.159
603.706,-1303.315
604.228,-1313.937
604.784,-1314.646
605.36,-1309.385
605.941,-1318.289
606.497,-1308.474
607.017,-1335.184
607.486,-1328.101
607.845,-1314.848
608.184,-1326.178
608.554,-1323.751
608.925,-1320.412
609.245,-1319.503
609.541,-1309.892
609.927,-1322.637
610.382,-1311.812
610.821,-1290.061
611.195,-1314.14
611.531,-1310.193
611.859,-1343.074
612.178,-1339.938
612.451,-1331.946
612.8,-1329.416
613.148,-1338.319
613.468,-1320.615
613.774,-1342.771
614.119,-1333.564
614.428,-1363.916
614.777,-1345.098
615.118,-1347.02
615.432,-1343.175
615.712,-1336.6
615.953,-1338.42
616.164,-1347.729
616.327,-1352.382
616.347,-1386.475
616.36,-1383.34
616.359,-1378.585
616.391,-1383.541
616.397,-1365.13
616.465,-1326.483
616.477,-1337.915
616.528,-1320.717
616.593,-1339.837
616.699,-1325.673
616.882,-1331.237
617.191,-1305.238
617.561,-1319.905
618.098,-1323.042
618.709,-1321.525
619.313,-1324.965
619.917,-1323.043
620.505,-1332.755
620.977,-1340.445
621.402,-1343.783
621.728,-1349.853
622.023,-1329.416
622.392,-1344.085
622.804,-1303.112
623.145,-1334.273
623.503,-1329.214
623.873,-1306.451
624.228,-1322.841
624.605,-1310.498
624.973,-1305.238
625.321,-1290.972
625.651,-1288.949
625.983,-1324.662
626.313,-1326.382
626.617,-1333.666
626.905,-1335.082
627.151,-1355.012
627.263,-1377.877
627.343,-1350.157
627.327,-1325.876
627.295,-1307.059
627.297,-1290.669
627.341,-1259.205
627.268,-1281.564
627.228,-1265.782
627.223,-1257.588
627.417,-1257.587
627.852,-1255.564
628.35,-1263.859
628.698,-1243.221
628.891,-1237.352
629.137,-1200.629
629.511,-1199.921
629.93,-1172.099
630.313,-1167.648
630.746,-1144.581
631.171,-1146.301
631.504,-1136.689
631.763,-1110.285
632.08,-1084.688
632.41,-1094.906
632.786,-1080.136
633.228,-1090.152
633.76,-1133.149
634.281,-1146.807
634.767,-1156.114
635.214,-1176.753
635.641,-1152.979
636.059,-1176.551
636.422,-1151.866
636.78,-1185.858
637.052,-1191.625
637.234,-1170.683
637.284,-1182.62
637.212,-1156.519
637.168,-1118.379
637.329,-1147.414
637.575,-1127.687
637.752,-1137.095
637.98,-1128.596
638.285,-1106.542
638.568,-1093.188
638.738,-1101.989
638.934,-1080.339
639.209,-1049.685
639.539,-1046.447
639.94,-1057.172
640.331,-1068.401
640.756,-1077.507
641.2,-1064.253
641.506,-1060.105
641.643,-1030.969
641.704,-1050.393
641.711,-1038.455
641.758,-1017.21
641.736,-1022.066
641.745,-1043.21
641.87,-1027.833
642.094,-1036.532
642.504,-1071.638
643.029,-1048.269
643.555,-1389.007
643.922,-1070.121
644.268,-1075.584
644.526,-1079.833
644.668,-1088.736
644.773,-1085.6
644.903,-1072.752
645.128,-1069.312
645.389,-1029.047
645.484,-1011.948
645.549,-985.645
645.559,-972.695
645.591,-954.99
645.77,-943.66
646.099,-952.563
646.403,-951.147
646.657,-946.897
646.826,-940.018
647.087,-939.512
647.437,-984.229
647.808,-970.368
648.271,-973.707
648.75,-968.446
649.128,-959.644
649.557,-961.567
649.867,-945.38
649.9,-856.25
650.095,-846.638
650.233,-838.849
650.213,-839.354
650.073,-793.727
650.01,-780.474
650.063,-772.988
650.377,-786.544
650.838,-798.482
651.32,-789.579
651.687,-797.876
651.946,-798.482
652.242,-801.011
652.638,-795.953
653.03,-827.216
653.43,-805.867
653.805,-826.911
654.044,-828.226
654.269,-822.155
654.559,-824.989
654.902,-832.373
655.239,-836.622
655.504,-841.479
655.674,-814.568
655.793,-805.463
655.779,-843.401
655.773,-840.974
655.897,-803.337
655.919,-816.896
655.856,-790.996
655.792,-803.945
655.845,-796.864
655.919,-803.035
655.907,-798.279
655.867,-809.712
655.918,-813.253
656.144,-823.572
656.493,-804.249
656.875,-824.684
657.258,-828.833
657.612,-845.121
657.929,-836.218
658.305,-839.758
658.748,-852.101
659.125,-832.07
659.543,-838.646
660.021,-834.903
660.445,-847.043
660.79,-846.436
661.106,-854.227
661.21,-847.144
661.195,-834.904
661.266,-817.3
661.516,-830.856
661.876,-834.801
662.233,-833.183
662.608,-831.867
662.952,-829.238
663.282,-828.428
663.517,-824.078
663.67,-819.829
663.754,-817.3
663.796,-827.922
663.867,-829.238
664.048,-829.743
664.314,-811.229
664.508,-818.514
664.681,-816.895
664.926,-825.394
665.215,-824.988
665.579,-827.619
665.947,-833.082
666.255,-826.506
666.528,-815.175
666.837,-833.791
667.177,-834.6
667.489,-844.818
667.357,-852.607
667.381,-850.989
667.374,-835.713
667.329,-857.666
667.269,-851.697
667.235,-855.44
667.326,-851.191
667.53,-837.836
667.797,-830.249
668.107,-840.568
668.396,-843.503
668.599,-839.253
668.795,-845.121
669.1,-838.545
669.436,-847.751
669.792,-857.869
670.131,-855.744
670.451,-893.48
670.782,-879.822
671.138,-893.379
671.478,-904.407
671.789,-919.278
672.112,-924.74
672.472,-915.434
672.81,-916.142
673.126,-902.586
673.392,-929.193
673.404,-939.208
673.5,-929.901
673.512,-890.749
673.215,-896.313
672.834,-878.0
672.542,-865.557
672.312,-844.312
672.27,-840.063
672.39,-835.207
672.628,-819.526
672.936,-834.6
673.32,-832.273
673.785,-859.487
674.244,-865.76
674.648,-871.02
674.99,-880.126
675.314,-893.582
675.479,-893.885
675.462,-895.098
675.374,-875.674
675.245,-857.362
674.998,-885.791
675.021,-886.904
675.362,-908.452
675.924,-920.897
676.514,-930.812
677.095,-954.384
677.597,-946.391
678.002,-962.781
678.271,-973.606
678.471,-979.474
678.601,-989.793
678.662,-973.201
678.592,-979.373
678.423,-942.446
678.331,-946.897
678.4,-942.446
678.531,-965.715
678.581,-969.863
678.632,-961.668
678.786,-986.961
679.091,-976.844
679.422,-998.494
679.821,-989.287
680.297,-1002.744
680.769,-1015.591
681.236,-1018.93
681.672,-1022.977
682.033,-1035.016
682.162,-1030.362
682.071,-1014.478
681.894,-1016.502
681.627,-1024.089
681.348,-1025.91
681.214,-1036.737
681.21,-1013.264
681.339,-1029.755
681.612,-1048.37
682.059,-1070.223
682.445,-1100.675
682.719,-1107.149
682.905,-1141.04
683.067,-1143.065
683.297,-1152.169
683.635,-1145.896
683.871,-1132.44
684.056,-1121.515
684.231,-1118.48
684.509,-1126.169
684.893,-1146.808
685.339,-1129.306
685.78,-1147.213
686.255,-1168.255
686.726,-1178.877
687.12,-1172.808
687.481,-1176.552
687.777,-1183.331
688.067,-1184.746
688.328,-1190.108
688.434,-1198.101
688.019,-1213.074
687.921,-1115.648
687.726,-1050.596
